*RAS_DATA_START
*RAS_HEADER_START
*DISP_FMT_X "%.2f"
*DISP_FMT_Y "%.0f"
*DISP_FULLSCALE "3150.0000000000"
*DISP_LINE_COLOR "255.0000000000"
*DISP_LINE_STYLE "0.0000000000"
*DISP_LINE_WIDTH "0.2500000000"
*DISP_NOTE "Collected Data-100"
*DISP_OFFSET_Y "0.0000000000"
*DISP_PEAKSEARCH_UNIT_Y "cps"
*DISP_RANGE_BOTTOM "0.0000000000"
*DISP_RANGE_LEFT "10.0000000000"
*DISP_RANGE_LOGCUTOFF "0.0100000000"
*DISP_RANGE_RIGHT "90.0000000000"
*DISP_RANGE_TOP "3150.0000000000"
*DISP_SCALE_MODE_Y "0.0000000000"
*DISP_TAB_NAME "Theta/2-Theta"
*DISP_TITLE_Y "Intensity"
*DISP_UNIT_Y "cps"
*DISP_WINDOW_NAME "MSG_MACROENGINE"
*FILE_COMMENT " "
*FILE_MD5 ""
*FILE_MEMO " "
*FILE_OPERATOR "administrator"
*FILE_PART_ID "MEAS_PBEA_00223"
*FILE_SAMPLE " "
*FILE_TYPE "RAS_RAW"
*FILE_USERGROUP "System Manager"
*FILE_VERSION "1.0000000000"
*HW_ATTACHMENT_ID "ATT0106"
*HW_ATTACHMENT_NAME "汎用雰囲気セパレータ|Air-sensitive Sample Holder"
*HW_COUNTER_ID-0 "CUT0025"
*HW_COUNTER_ID-1 "CUT0020"
*HW_COUNTER_ID-2 "CUT0020"
*HW_COUNTER_ID-3 "CMC0021"
*HW_COUNTER_NAME-0 "D/teX Ultra2|D/teX Ultra2"
*HW_COUNTER_NAME-1 "None|None"
*HW_COUNTER_NAME-2 "None|None"
*HW_COUNTER_NAME-3 "検出器モノクロメータ|Detector monochromator"
*HW_COUNTER_SELECT_NAME "D/teX Ultra2|D/teX Ultra2"
*HW_GONIOMETER_ID "GON0070"
*HW_GONIOMETER_NAME "MiniFlex 300/600|MiniFlex 300/600"
*HW_GONIOMETER_RADIUS-0 "79.0"
*HW_GONIOMETER_RADIUS-1 "91.5"
*HW_GONIOMETER_RADIUS-2 "150.0"
*HW_GONIOMETER_RADIUS-3 "0"
*HW_GONIOMETER_RADIUS-4 "92.7"
*HW_GONIOMETER_RADIUS-5 "139.3"
*HW_GONIOMETER_RADIUS-6 "46.6"
*HW_GONIOMETER_RADIUS-7 "150.0"
*HW_I_OPT_ID-0 "ISL0021"
*HW_I_OPT_ID-1 "ISO0021"
*HW_I_OPT_NAME-0 "発散スリット|Divergence slit"
*HW_I_OPT_NAME-1 "入射平行スリット|Incident parallel slit"
*HW_R_ATTENUATER_AUTOMODE "0"
*HW_R_OPT_ID-0 "RSS0021"
*HW_R_OPT_ID-1 "RSO0021"
*HW_R_OPT_ID-2 "RRS0021"
*HW_R_OPT_NAME-0 "散乱スリット|Scattering slit"
*HW_R_OPT_NAME-1 "受光平行スリット|Receiving soller slit"
*HW_R_OPT_NAME-2 "受光スリット|Receiving slit"
*HW_SAMPLE_HOLDER_ID "SMP0000"
*HW_SAMPLE_HOLDER_NAME "無し|None"
*HW_XG_CURRENT_MAX "15"
*HW_XG_CURRENT_MIN "2"
*HW_XG_CURRENT_RESOLUTION "1"
*HW_XG_CURRENT_UNIT "mA"
*HW_XG_FOCUS "1mm x 10mm"
*HW_XG_FOCUS_TYPE "Normal"
*HW_XG_ID "1060"
*HW_XG_NAME "300W/600W 封入管-B|300W/600W Sealed tube-B"
*HW_XG_TARGET_ATOMIC_NUMBER "29.0000000000"
*HW_XG_TARGET_NAME "Cu"
*HW_XG_TYPE "Hermetic"
*HW_XG_VOLTAGE_MAX "40"
*HW_XG_VOLTAGE_MIN "20"
*HW_XG_VOLTAGE_RESOLUTION "1"
*HW_XG_VOLTAGE_UNIT "kV"
*HW_XG_WATT_MAX "0.600"
*HW_XG_WATT_UNIT "kW"
*HW_XG_WAVE_LENGTH_ALPHA1 "1.540593"
*HW_XG_WAVE_LENGTH_ALPHA2 "1.544414"
*HW_XG_WAVE_LENGTH_BETA "1.392250"
*MEAS_COND_AXIS_NAME-0 "Theta/2-Theta"
*MEAS_COND_AXIS_NAME-1 "Soller(inc.)"
*MEAS_COND_AXIS_NAME-2 "IHS"
*MEAS_COND_AXIS_NAME-3 "DS"
*MEAS_COND_AXIS_NAME-4 "SS"
*MEAS_COND_AXIS_NAME-5 "Soller(rec.)"
*MEAS_COND_AXIS_NAME-6 "RS"
*MEAS_COND_AXIS_NAME-7 "Filter"
*MEAS_COND_AXIS_NAME-8 "Monochromator"
*MEAS_COND_AXIS_NAME-9 "PHA"
*MEAS_COND_AXIS_NAME_INTERNAL-0 "TwoThetaTheta"
*MEAS_COND_AXIS_NAME_INTERNAL-1 "IncidentSollerSlit"
*MEAS_COND_AXIS_NAME_INTERNAL-2 "IncidentAxdSlit"
*MEAS_COND_AXIS_NAME_INTERNAL-3 "IncidentSlitBox"
*MEAS_COND_AXIS_NAME_INTERNAL-4 "ReceivingSlitBox1"
*MEAS_COND_AXIS_NAME_INTERNAL-5 "ReceivingSollerSlit"
*MEAS_COND_AXIS_NAME_INTERNAL-6 "ReceivingSlitBox2"
*MEAS_COND_AXIS_NAME_INTERNAL-7 "Filter"
*MEAS_COND_AXIS_NAME_INTERNAL-8 "CounterMonochromator"
*MEAS_COND_AXIS_NAME_INTERNAL-9 "PHA"
*MEAS_COND_AXIS_NAME_MAGICNO-0 "268632064.0000000000"
*MEAS_COND_AXIS_NAME_MAGICNO-1 "20971521.0000000000"
*MEAS_COND_AXIS_NAME_MAGICNO-2 "22020097.0000000000"
*MEAS_COND_AXIS_NAME_MAGICNO-3 "22020097.0000000000"
*MEAS_COND_AXIS_NAME_MAGICNO-4 "23068673.0000000000"
*MEAS_COND_AXIS_NAME_MAGICNO-5 "20971521.0000000000"
*MEAS_COND_AXIS_NAME_MAGICNO-6 "23068673.0000000000"
*MEAS_COND_AXIS_NAME_MAGICNO-7 "20971521.0000000000"
*MEAS_COND_AXIS_NAME_MAGICNO-8 "20971521.0000000000"
*MEAS_COND_AXIS_NAME_MAGICNO-9 "0.0000000000"
*MEAS_COND_AXIS_OFFSET-0 "0.0000000000"
*MEAS_COND_AXIS_OFFSET-1 "-"
*MEAS_COND_AXIS_OFFSET-2 "-"
*MEAS_COND_AXIS_OFFSET-3 "-"
*MEAS_COND_AXIS_OFFSET-4 "-"
*MEAS_COND_AXIS_OFFSET-5 "-"
*MEAS_COND_AXIS_OFFSET-6 "-"
*MEAS_COND_AXIS_OFFSET-7 "-"
*MEAS_COND_AXIS_OFFSET-8 "-"
*MEAS_COND_AXIS_OFFSET-9 "-"
*MEAS_COND_AXIS_POSITION-0 "12.0000000000"
*MEAS_COND_AXIS_POSITION-1 "5.0deg"
*MEAS_COND_AXIS_POSITION-2 "10.0mm"
*MEAS_COND_AXIS_POSITION-3 "1.250deg"
*MEAS_COND_AXIS_POSITION-4 "8.0mm"
*MEAS_COND_AXIS_POSITION-5 "5.0deg"
*MEAS_COND_AXIS_POSITION-6 "0.3mm"
*MEAS_COND_AXIS_POSITION-7 "K-beta(x1.5)"
*MEAS_COND_AXIS_POSITION-8 "None"
*MEAS_COND_AXIS_POSITION-9 "46.0000000000"
*MEAS_COND_AXIS_UNIT-0 "deg"
*MEAS_COND_AXIS_UNIT-1 ""
*MEAS_COND_AXIS_UNIT-2 ""
*MEAS_COND_AXIS_UNIT-3 ""
*MEAS_COND_AXIS_UNIT-4 ""
*MEAS_COND_AXIS_UNIT-5 ""
*MEAS_COND_AXIS_UNIT-6 ""
*MEAS_COND_AXIS_UNIT-7 ""
*MEAS_COND_AXIS_UNIT-8 ""
*MEAS_COND_AXIS_UNIT-9 "div"
*MEAS_COND_COUNTER_CNTLOSS_CORR "0.0000000000"
*MEAS_COND_COUNTER_PHABASE "46.0000000000"
*MEAS_COND_COUNTER_PHAWINDOW "8.0000000000"
*MEAS_COND_COUNTER_PHA_UNIT "div"
*MEAS_COND_COUNTER_TAUDIFF "0.2500000000"
*MEAS_COND_COUNTER_TAUINT "0.7500000000"
*MEAS_COND_IRRADIATION_MODE "OFF"
*MEAS_COND_IRRADIATION_WIDTH ""
*MEAS_COND_OPT_ATTR " "
*MEAS_COND_OPT_NAME ""
*MEAS_COND_UNSYMMETRIC_MODE "OFF"
*MEAS_COND_XG_CURRENT "15.0000000000"
*MEAS_COND_XG_VOLTAGE "40.0000000000"
*MEAS_COND_XG_WAVE_TYPE "Ka"
*MEAS_DATA_COUNT "4001.0000000000"
*MEAS_SCAN_AXIS_X "Theta/2-Theta"
*MEAS_SCAN_AXIS_X_INTERNAL "TwoThetaTheta"
*MEAS_SCAN_END_TIME "03/24/23 00:34:35"
*MEAS_SCAN_MODE "CONTINUOUS"
*MEAS_SCAN_MONITOR "0"
*MEAS_SCAN_RESOLUTION_X "0.0025"
*MEAS_SCAN_SPEED "90.000000"
*MEAS_SCAN_SPEED_UNIT "deg/min"
*MEAS_SCAN_SPEED_USER "90.000000"
*MEAS_SCAN_START "10.0000000000"
*MEAS_SCAN_START_TIME "03/24/23 00:33:21"
*MEAS_SCAN_STEP "0.0200000000"
*MEAS_SCAN_STOP "90.0000000000"
*MEAS_SCAN_UNIT_X "deg"
*MEAS_SCAN_UNIT_Y "counts"
*SLIT_SYSTEM "0"
*RAS_HEADER_END
*RAS_INT_START
10.0000 2.0000 1.0000
10.0200 5.0000 1.0000
10.0400 10.0000 1.0000
10.0600 6.0000 1.0000
10.0800 8.0000 1.0000
10.1000 4.0000 1.0000
10.1200 2.0000 1.0000
10.1400 6.0000 1.0000
10.1600 13.0000 1.0000
10.1800 6.0000 1.0000
10.2000 6.0000 1.0000
10.2200 11.0000 1.0000
10.2400 5.0000 1.0000
10.2600 8.0000 1.0000
10.2800 8.0000 1.0000
10.3000 4.0000 1.0000
10.3200 4.0000 1.0000
10.3400 8.0000 1.0000
10.3600 5.0000 1.0000
10.3800 4.0000 1.0000
10.4000 4.0000 1.0000
10.4200 2.0000 1.0000
10.4400 8.0000 1.0000
10.4600 4.0000 1.0000
10.4800 4.0000 1.0000
10.5000 5.0000 1.0000
10.5200 7.0000 1.0000
10.5400 5.0000 1.0000
10.5600 8.0000 1.0000
10.5800 5.0000 1.0000
10.6000 6.0000 1.0000
10.6200 5.0000 1.0000
10.6400 8.0000 1.0000
10.6600 6.0000 1.0000
10.6800 5.0000 1.0000
10.7000 3.0000 1.0000
10.7200 2.0000 1.0000
10.7400 5.0000 1.0000
10.7600 7.0000 1.0000
10.7800 4.0000 1.0000
10.8000 12.0000 1.0000
10.8200 6.0000 1.0000
10.8400 1.0000 1.0000
10.8600 3.0000 1.0000
10.8800 6.0000 1.0000
10.9000 10.0000 1.0000
10.9200 10.0000 1.0000
10.9400 5.0000 1.0000
10.9600 12.0000 1.0000
10.9800 9.0000 1.0000
11.0000 10.0000 1.0000
11.0200 5.0000 1.0000
11.0400 10.0000 1.0000
11.0600 5.0000 1.0000
11.0800 6.0000 1.0000
11.1000 8.0000 1.0000
11.1200 1.0000 1.0000
11.1400 3.0000 1.0000
11.1600 2.0000 1.0000
11.1800 1.0000 1.0000
11.2000 2.0000 1.0000
11.2200 4.0000 1.0000
11.2400 5.0000 1.0000
11.2600 4.0000 1.0000
11.2800 6.0000 1.0000
11.3000 4.0000 1.0000
11.3200 9.0000 1.0000
11.3400 7.0000 1.0000
11.3600 6.0000 1.0000
11.3800 3.0000 1.0000
11.4000 7.0000 1.0000
11.4200 7.0000 1.0000
11.4400 5.0000 1.0000
11.4600 5.0000 1.0000
11.4800 5.0000 1.0000
11.5000 4.0000 1.0000
11.5200 4.0000 1.0000
11.5400 3.0000 1.0000
11.5600 6.0000 1.0000
11.5800 7.0000 1.0000
11.6000 3.0000 1.0000
11.6200 3.0000 1.0000
11.6400 6.0000 1.0000
11.6600 5.0000 1.0000
11.6800 3.0000 1.0000
11.7000 4.0000 1.0000
11.7200 1.0000 1.0000
11.7400 7.0000 1.0000
11.7600 10.0000 1.0000
11.7800 3.0000 1.0000
11.8000 3.0000 1.0000
11.8200 3.0000 1.0000
11.8400 5.0000 1.0000
11.8600 5.0000 1.0000
11.8800 5.0000 1.0000
11.9000 6.0000 1.0000
11.9200 4.0000 1.0000
11.9400 7.0000 1.0000
11.9600 5.0000 1.0000
11.9800 6.0000 1.0000
12.0000 8.0000 1.0000
12.0200 8.0000 1.0000
12.0400 11.0000 1.0000
12.0600 13.0000 1.0000
12.0800 4.0000 1.0000
12.1000 4.0000 1.0000
12.1200 4.0000 1.0000
12.1400 11.0000 1.0000
12.1600 5.0000 1.0000
12.1800 6.0000 1.0000
12.2000 3.0000 1.0000
12.2200 6.0000 1.0000
12.2400 4.0000 1.0000
12.2600 4.0000 1.0000
12.2800 4.0000 1.0000
12.3000 5.0000 1.0000
12.3200 6.0000 1.0000
12.3400 9.0000 1.0000
12.3600 12.0000 1.0000
12.3800 10.0000 1.0000
12.4000 3.0000 1.0000
12.4200 6.0000 1.0000
12.4400 1.0000 1.0000
12.4600 5.0000 1.0000
12.4800 7.0000 1.0000
12.5000 12.0000 1.0000
12.5200 9.0000 1.0000
12.5400 7.0000 1.0000
12.5600 7.0000 1.0000
12.5800 7.0000 1.0000
12.6000 3.0000 1.0000
12.6200 6.0000 1.0000
12.6400 2.0000 1.0000
12.6600 4.0000 1.0000
12.6800 8.0000 1.0000
12.7000 4.0000 1.0000
12.7200 5.0000 1.0000
12.7400 7.0000 1.0000
12.7600 8.0000 1.0000
12.7800 4.0000 1.0000
12.8000 5.0000 1.0000
12.8200 4.0000 1.0000
12.8400 4.0000 1.0000
12.8600 3.0000 1.0000
12.8800 4.0000 1.0000
12.9000 5.0000 1.0000
12.9200 4.0000 1.0000
12.9400 5.0000 1.0000
12.9600 3.0000 1.0000
12.9800 3.0000 1.0000
13.0000 3.0000 1.0000
13.0200 8.0000 1.0000
13.0400 7.0000 1.0000
13.0600 3.0000 1.0000
13.0800 0.0000 1.0000
13.1000 4.0000 1.0000
13.1200 7.0000 1.0000
13.1400 5.0000 1.0000
13.1600 2.0000 1.0000
13.1800 2.0000 1.0000
13.2000 5.0000 1.0000
13.2200 6.0000 1.0000
13.2400 8.0000 1.0000
13.2600 8.0000 1.0000
13.2800 2.0000 1.0000
13.3000 3.0000 1.0000
13.3200 3.0000 1.0000
13.3400 12.0000 1.0000
13.3600 6.0000 1.0000
13.3800 7.0000 1.0000
13.4000 5.0000 1.0000
13.4200 9.0000 1.0000
13.4400 8.0000 1.0000
13.4600 7.0000 1.0000
13.4800 8.0000 1.0000
13.5000 10.0000 1.0000
13.5200 10.0000 1.0000
13.5400 13.0000 1.0000
13.5600 10.0000 1.0000
13.5800 7.0000 1.0000
13.6000 5.0000 1.0000
13.6200 5.0000 1.0000
13.6400 4.0000 1.0000
13.6600 5.0000 1.0000
13.6800 5.0000 1.0000
13.7000 8.0000 1.0000
13.7200 7.0000 1.0000
13.7400 6.0000 1.0000
13.7600 6.0000 1.0000
13.7800 5.0000 1.0000
13.8000 8.0000 1.0000
13.8200 4.0000 1.0000
13.8400 8.0000 1.0000
13.8600 10.0000 1.0000
13.8800 6.0000 1.0000
13.9000 12.0000 1.0000
13.9200 7.0000 1.0000
13.9400 7.0000 1.0000
13.9600 4.0000 1.0000
13.9800 7.0000 1.0000
14.0000 3.0000 1.0000
14.0200 7.0000 1.0000
14.0400 8.0000 1.0000
14.0600 5.0000 1.0000
14.0800 6.0000 1.0000
14.1000 6.0000 1.0000
14.1200 4.0000 1.0000
14.1400 8.0000 1.0000
14.1600 4.0000 1.0000
14.1800 10.0000 1.0000
14.2000 5.0000 1.0000
14.2200 3.0000 1.0000
14.2400 4.0000 1.0000
14.2600 2.0000 1.0000
14.2800 7.0000 1.0000
14.3000 5.0000 1.0000
14.3200 11.0000 1.0000
14.3400 5.0000 1.0000
14.3600 2.0000 1.0000
14.3800 10.0000 1.0000
14.4000 12.0000 1.0000
14.4200 6.0000 1.0000
14.4400 9.0000 1.0000
14.4600 6.0000 1.0000
14.4800 5.0000 1.0000
14.5000 2.0000 1.0000
14.5200 7.0000 1.0000
14.5400 6.0000 1.0000
14.5600 8.0000 1.0000
14.5800 8.0000 1.0000
14.6000 7.0000 1.0000
14.6200 6.0000 1.0000
14.6400 8.0000 1.0000
14.6600 7.0000 1.0000
14.6800 9.0000 1.0000
14.7000 6.0000 1.0000
14.7200 4.0000 1.0000
14.7400 5.0000 1.0000
14.7600 6.0000 1.0000
14.7800 6.0000 1.0000
14.8000 6.0000 1.0000
14.8200 9.0000 1.0000
14.8400 5.0000 1.0000
14.8600 4.0000 1.0000
14.8800 4.0000 1.0000
14.9000 4.0000 1.0000
14.9200 10.0000 1.0000
14.9400 1.0000 1.0000
14.9600 6.0000 1.0000
14.9800 10.0000 1.0000
15.0000 7.0000 1.0000
15.0200 12.0000 1.0000
15.0400 7.0000 1.0000
15.0600 7.0000 1.0000
15.0800 6.0000 1.0000
15.1000 7.0000 1.0000
15.1200 8.0000 1.0000
15.1400 6.0000 1.0000
15.1600 8.0000 1.0000
15.1800 11.0000 1.0000
15.2000 11.0000 1.0000
15.2200 8.0000 1.0000
15.2400 6.0000 1.0000
15.2600 6.0000 1.0000
15.2800 8.0000 1.0000
15.3000 11.0000 1.0000
15.3200 6.0000 1.0000
15.3400 6.0000 1.0000
15.3600 5.0000 1.0000
15.3800 10.0000 1.0000
15.4000 3.0000 1.0000
15.4200 5.0000 1.0000
15.4400 4.0000 1.0000
15.4600 5.0000 1.0000
15.4800 12.0000 1.0000
15.5000 6.0000 1.0000
15.5200 2.0000 1.0000
15.5400 9.0000 1.0000
15.5600 6.0000 1.0000
15.5800 4.0000 1.0000
15.6000 7.0000 1.0000
15.6200 7.0000 1.0000
15.6400 10.0000 1.0000
15.6600 15.0000 1.0000
15.6800 7.0000 1.0000
15.7000 11.0000 1.0000
15.7200 11.0000 1.0000
15.7400 5.0000 1.0000
15.7600 5.0000 1.0000
15.7800 4.0000 1.0000
15.8000 9.0000 1.0000
15.8200 7.0000 1.0000
15.8400 7.0000 1.0000
15.8600 5.0000 1.0000
15.8800 5.0000 1.0000
15.9000 10.0000 1.0000
15.9200 9.0000 1.0000
15.9400 2.0000 1.0000
15.9600 3.0000 1.0000
15.9800 3.0000 1.0000
16.0000 4.0000 1.0000
16.0200 10.0000 1.0000
16.0400 9.0000 1.0000
16.0600 7.0000 1.0000
16.0800 4.0000 1.0000
16.1000 5.0000 1.0000
16.1200 6.0000 1.0000
16.1400 5.0000 1.0000
16.1600 12.0000 1.0000
16.1800 5.0000 1.0000
16.2000 4.0000 1.0000
16.2200 11.0000 1.0000
16.2400 11.0000 1.0000
16.2600 9.0000 1.0000
16.2800 8.0000 1.0000
16.3000 6.0000 1.0000
16.3200 2.0000 1.0000
16.3400 2.0000 1.0000
16.3600 5.0000 1.0000
16.3800 6.0000 1.0000
16.4000 6.0000 1.0000
16.4200 8.0000 1.0000
16.4400 7.0000 1.0000
16.4600 3.0000 1.0000
16.4800 5.0000 1.0000
16.5000 3.0000 1.0000
16.5200 9.0000 1.0000
16.5400 16.0000 1.0000
16.5600 6.0000 1.0000
16.5800 5.0000 1.0000
16.6000 6.0000 1.0000
16.6200 3.0000 1.0000
16.6400 7.0000 1.0000
16.6600 9.0000 1.0000
16.6800 10.0000 1.0000
16.7000 2.0000 1.0000
16.7200 5.0000 1.0000
16.7400 8.0000 1.0000
16.7600 9.0000 1.0000
16.7800 4.0000 1.0000
16.8000 6.0000 1.0000
16.8200 2.0000 1.0000
16.8400 4.0000 1.0000
16.8600 5.0000 1.0000
16.8800 3.0000 1.0000
16.9000 13.0000 1.0000
16.9200 11.0000 1.0000
16.9400 4.0000 1.0000
16.9600 7.0000 1.0000
16.9800 8.0000 1.0000
17.0000 9.0000 1.0000
17.0200 10.0000 1.0000
17.0400 8.0000 1.0000
17.0600 7.0000 1.0000
17.0800 6.0000 1.0000
17.1000 7.0000 1.0000
17.1200 9.0000 1.0000
17.1400 6.0000 1.0000
17.1600 7.0000 1.0000
17.1800 8.0000 1.0000
17.2000 6.0000 1.0000
17.2200 8.0000 1.0000
17.2400 14.0000 1.0000
17.2600 6.0000 1.0000
17.2800 8.0000 1.0000
17.3000 10.0000 1.0000
17.3200 5.0000 1.0000
17.3400 8.0000 1.0000
17.3600 6.0000 1.0000
17.3800 2.0000 1.0000
17.4000 7.0000 1.0000
17.4200 14.0000 1.0000
17.4400 3.0000 1.0000
17.4600 8.0000 1.0000
17.4800 10.0000 1.0000
17.5000 6.0000 1.0000
17.5200 8.0000 1.0000
17.5400 6.0000 1.0000
17.5600 7.0000 1.0000
17.5800 6.0000 1.0000
17.6000 6.0000 1.0000
17.6200 7.0000 1.0000
17.6400 5.0000 1.0000
17.6600 9.0000 1.0000
17.6800 9.0000 1.0000
17.7000 8.0000 1.0000
17.7200 7.0000 1.0000
17.7400 6.0000 1.0000
17.7600 4.0000 1.0000
17.7800 3.0000 1.0000
17.8000 5.0000 1.0000
17.8200 10.0000 1.0000
17.8400 10.0000 1.0000
17.8600 7.0000 1.0000
17.8800 5.0000 1.0000
17.9000 6.0000 1.0000
17.9200 8.0000 1.0000
17.9400 11.0000 1.0000
17.9600 9.0000 1.0000
17.9800 7.0000 1.0000
18.0000 10.0000 1.0000
18.0200 14.0000 1.0000
18.0400 7.0000 1.0000
18.0600 6.0000 1.0000
18.0800 6.0000 1.0000
18.1000 8.0000 1.0000
18.1200 10.0000 1.0000
18.1400 8.0000 1.0000
18.1600 5.0000 1.0000
18.1800 7.0000 1.0000
18.2000 3.0000 1.0000
18.2200 13.0000 1.0000
18.2400 12.0000 1.0000
18.2600 10.0000 1.0000
18.2800 6.0000 1.0000
18.3000 8.0000 1.0000
18.3200 7.0000 1.0000
18.3400 9.0000 1.0000
18.3600 6.0000 1.0000
18.3800 6.0000 1.0000
18.4000 10.0000 1.0000
18.4200 5.0000 1.0000
18.4400 12.0000 1.0000
18.4600 15.0000 1.0000
18.4800 10.0000 1.0000
18.5000 10.0000 1.0000
18.5200 6.0000 1.0000
18.5400 9.0000 1.0000
18.5600 5.0000 1.0000
18.5800 8.0000 1.0000
18.6000 6.0000 1.0000
18.6200 9.0000 1.0000
18.6400 6.0000 1.0000
18.6600 7.0000 1.0000
18.6800 5.0000 1.0000
18.7000 7.0000 1.0000
18.7200 11.0000 1.0000
18.7400 10.0000 1.0000
18.7600 10.0000 1.0000
18.7800 8.0000 1.0000
18.8000 10.0000 1.0000
18.8200 8.0000 1.0000
18.8400 10.0000 1.0000
18.8600 5.0000 1.0000
18.8800 12.0000 1.0000
18.9000 5.0000 1.0000
18.9200 3.0000 1.0000
18.9400 10.0000 1.0000
18.9600 12.0000 1.0000
18.9800 8.0000 1.0000
19.0000 9.0000 1.0000
19.0200 12.0000 1.0000
19.0400 8.0000 1.0000
19.0600 8.0000 1.0000
19.0800 8.0000 1.0000
19.1000 8.0000 1.0000
19.1200 10.0000 1.0000
19.1400 12.0000 1.0000
19.1600 6.0000 1.0000
19.1800 10.0000 1.0000
19.2000 6.0000 1.0000
19.2200 4.0000 1.0000
19.2400 9.0000 1.0000
19.2600 11.0000 1.0000
19.2800 8.0000 1.0000
19.3000 7.0000 1.0000
19.3200 7.0000 1.0000
19.3400 7.0000 1.0000
19.3600 10.0000 1.0000
19.3800 10.0000 1.0000
19.4000 8.0000 1.0000
19.4200 11.0000 1.0000
19.4400 8.0000 1.0000
19.4600 15.0000 1.0000
19.4800 14.0000 1.0000
19.5000 9.0000 1.0000
19.5200 8.0000 1.0000
19.5400 10.0000 1.0000
19.5600 5.0000 1.0000
19.5800 16.0000 1.0000
19.6000 13.0000 1.0000
19.6200 9.0000 1.0000
19.6400 12.0000 1.0000
19.6600 8.0000 1.0000
19.6800 11.0000 1.0000
19.7000 14.0000 1.0000
19.7200 7.0000 1.0000
19.7400 6.0000 1.0000
19.7600 7.0000 1.0000
19.7800 7.0000 1.0000
19.8000 5.0000 1.0000
19.8200 15.0000 1.0000
19.8400 11.0000 1.0000
19.8600 6.0000 1.0000
19.8800 3.0000 1.0000
19.9000 6.0000 1.0000
19.9200 4.0000 1.0000
19.9400 11.0000 1.0000
19.9600 5.0000 1.0000
19.9800 11.0000 1.0000
20.0000 8.0000 1.0000
20.0200 6.0000 1.0000
20.0400 9.0000 1.0000
20.0600 8.0000 1.0000
20.0800 10.0000 1.0000
20.1000 11.0000 1.0000
20.1200 8.0000 1.0000
20.1400 8.0000 1.0000
20.1600 4.0000 1.0000
20.1800 9.0000 1.0000
20.2000 11.0000 1.0000
20.2200 18.0000 1.0000
20.2400 8.0000 1.0000
20.2600 3.0000 1.0000
20.2800 10.0000 1.0000
20.3000 10.0000 1.0000
20.3200 8.0000 1.0000
20.3400 12.0000 1.0000
20.3600 10.0000 1.0000
20.3800 7.0000 1.0000
20.4000 16.0000 1.0000
20.4200 10.0000 1.0000
20.4400 15.0000 1.0000
20.4600 9.0000 1.0000
20.4800 4.0000 1.0000
20.5000 11.0000 1.0000
20.5200 13.0000 1.0000
20.5400 10.0000 1.0000
20.5600 14.0000 1.0000
20.5800 11.0000 1.0000
20.6000 6.0000 1.0000
20.6200 10.0000 1.0000
20.6400 12.0000 1.0000
20.6600 6.0000 1.0000
20.6800 8.0000 1.0000
20.7000 8.0000 1.0000
20.7200 7.0000 1.0000
20.7400 13.0000 1.0000
20.7600 11.0000 1.0000
20.7800 7.0000 1.0000
20.8000 8.0000 1.0000
20.8200 7.0000 1.0000
20.8400 9.0000 1.0000
20.8600 12.0000 1.0000
20.8800 8.0000 1.0000
20.9000 11.0000 1.0000
20.9200 9.0000 1.0000
20.9400 10.0000 1.0000
20.9600 17.0000 1.0000
20.9800 12.0000 1.0000
21.0000 8.0000 1.0000
21.0200 10.0000 1.0000
21.0400 9.0000 1.0000
21.0600 10.0000 1.0000
21.0800 9.0000 1.0000
21.1000 11.0000 1.0000
21.1200 20.0000 1.0000
21.1400 11.0000 1.0000
21.1600 11.0000 1.0000
21.1800 13.0000 1.0000
21.2000 10.0000 1.0000
21.2200 9.0000 1.0000
21.2400 11.0000 1.0000
21.2600 9.0000 1.0000
21.2800 8.0000 1.0000
21.3000 11.0000 1.0000
21.3200 13.0000 1.0000
21.3400 13.0000 1.0000
21.3600 17.0000 1.0000
21.3800 12.0000 1.0000
21.4000 8.0000 1.0000
21.4200 10.0000 1.0000
21.4400 16.0000 1.0000
21.4600 11.0000 1.0000
21.4800 11.0000 1.0000
21.5000 12.0000 1.0000
21.5200 10.0000 1.0000
21.5400 20.0000 1.0000
21.5600 14.0000 1.0000
21.5800 16.0000 1.0000
21.6000 10.0000 1.0000
21.6200 4.0000 1.0000
21.6400 3.0000 1.0000
21.6600 15.0000 1.0000
21.6800 9.0000 1.0000
21.7000 11.0000 1.0000
21.7200 11.0000 1.0000
21.7400 11.0000 1.0000
21.7600 12.0000 1.0000
21.7800 12.0000 1.0000
21.8000 6.0000 1.0000
21.8200 10.0000 1.0000
21.8400 9.0000 1.0000
21.8600 12.0000 1.0000
21.8800 4.0000 1.0000
21.9000 12.0000 1.0000
